   -1445.3219    246.8669   -131.7865  12103.8633    148.6368

       0.3398      0.5804      0.1267      0.0304      0.5000

      20.7481     20.7198
  infinite isoscalar matter 

  rho[fm-3] rhon[fm-3] rhop[fm-3] e[MeV]  e/a[MeV]

     0.002    0.001    0.001    0.000    0.174    1.191   -1.084    0.000    0.068
     0.004    0.002    0.002   -0.000   -0.086    1.890   -2.168    0.000    0.191
     0.006    0.003    0.003   -0.003   -0.423    2.477   -3.252    0.001    0.352
     0.008    0.004    0.004   -0.006   -0.793    3.000   -4.336    0.001    0.541
     0.010    0.005    0.005   -0.012   -1.180    3.481   -5.420    0.002    0.756
     0.012    0.006    0.006   -0.019   -1.576    3.931   -6.504    0.002    0.994
     0.014    0.007    0.007   -0.028   -1.975    4.357   -7.588    0.003    1.253
     0.016    0.008    0.008   -0.038   -2.375    4.763   -8.672    0.003    1.531
     0.018    0.009    0.009   -0.050   -2.773    5.152   -9.756    0.004    1.827
     0.020    0.010    0.010   -0.063   -3.169    5.526  -10.840    0.005    2.140
     0.022    0.011    0.011   -0.078   -3.561    5.889  -11.924    0.006    2.469
     0.024    0.012    0.012   -0.095   -3.948    6.241  -13.008    0.007    2.813
     0.026    0.013    0.013   -0.113   -4.330    6.583  -14.092    0.008    3.171
     0.028    0.014    0.014   -0.132   -4.707    6.916  -15.176    0.009    3.544
     0.030    0.015    0.015   -0.152   -5.078    7.242  -16.260    0.010    3.931
     0.032    0.016    0.016   -0.174   -5.443    7.560  -17.344    0.011    4.330
     0.034    0.017    0.017   -0.197   -5.801    7.872  -18.428    0.012    4.743
     0.036    0.018    0.018   -0.222   -6.154    8.178  -19.512    0.013    5.167
     0.038    0.019    0.019   -0.247   -6.500    8.478  -20.596    0.014    5.604
     0.040    0.020    0.020   -0.274   -6.839    8.773  -21.680    0.016    6.052
     0.042    0.021    0.021   -0.301   -7.173    9.063  -22.764    0.017    6.511
     0.044    0.022    0.022   -0.330   -7.499    9.348  -23.848    0.018    6.982
     0.046    0.023    0.023   -0.360   -7.819    9.629  -24.932    0.020    7.463
     0.048    0.024    0.024   -0.390   -8.132    9.907  -26.016    0.021    7.955
     0.050    0.025    0.025   -0.422   -8.439   10.180  -27.100    0.023    8.458
     0.052    0.026    0.026   -0.454   -8.740   10.450  -28.184    0.024    8.970
     0.054    0.027    0.027   -0.488   -9.033   10.716  -29.268    0.026    9.493
     0.056    0.028    0.028   -0.522   -9.320   10.979  -30.352    0.028   10.025
     0.058    0.029    0.029   -0.557   -9.601   11.239  -31.436    0.029   10.567
     0.060    0.030    0.030   -0.593   -9.875   11.496  -32.520    0.031   11.118
     0.062    0.031    0.031   -0.629  -10.143   11.750  -33.604    0.033   11.679
     0.064    0.032    0.032   -0.666  -10.404   12.001  -34.688    0.034   12.248
     0.066    0.033    0.033   -0.703  -10.659   12.250  -35.772    0.036   12.827
     0.068    0.034    0.034   -0.742  -10.907   12.496  -36.856    0.038   13.414
     0.070    0.035    0.035   -0.780  -11.150   12.740  -37.940    0.040   14.010
     0.072    0.036    0.036   -0.820  -11.385   12.981  -39.024    0.042   14.615
     0.074    0.037    0.037   -0.860  -11.615   13.221  -40.108    0.044   15.228
     0.076    0.038    0.038   -0.900  -11.838   13.458  -41.192    0.046   15.850
     0.078    0.039    0.039   -0.940  -12.055   13.693  -42.276    0.048   16.480
     0.080    0.040    0.040   -0.981  -12.266   13.926  -43.360    0.050   17.117
     0.082    0.041    0.041   -1.023  -12.471   14.157  -44.444    0.052   17.763
     0.084    0.042    0.042   -1.064  -12.670   14.386  -45.528    0.054   18.417
     0.086    0.043    0.043   -1.106  -12.863   14.614  -46.612    0.056   19.079
     0.088    0.044    0.044   -1.148  -13.049   14.839  -47.696    0.059   19.748
     0.090    0.045    0.045   -1.191  -13.230   15.063  -48.780    0.061   20.425
     0.092    0.046    0.046   -1.233  -13.405   15.286  -49.864    0.063   21.110
     0.094    0.047    0.047   -1.276  -13.574   15.506  -50.948    0.065   21.802
     0.096    0.048    0.048   -1.319  -13.737   15.726  -52.032    0.068   22.501
     0.098    0.049    0.049   -1.362  -13.894   15.943  -53.116    0.070   23.208
     0.100    0.050    0.050   -1.405  -14.045   16.159  -54.200    0.072   23.922
     0.102    0.051    0.051   -1.447  -14.191   16.374  -55.284    0.075   24.644
     0.104    0.052    0.052   -1.490  -14.331   16.588  -56.368    0.077   25.372
     0.106    0.053    0.053   -1.533  -14.465   16.800  -57.452    0.080   26.107
     0.108    0.054    0.054   -1.576  -14.593   17.010  -58.536    0.082   26.850
     0.110    0.055    0.055   -1.619  -14.716   17.220  -59.620    0.085   27.599
     0.112    0.056    0.056   -1.661  -14.833   17.428  -60.704    0.088   28.355
     0.114    0.057    0.057   -1.704  -14.945   17.635  -61.788    0.090   29.118
     0.116    0.058    0.058   -1.746  -15.051   17.840  -62.872    0.093   29.888
     0.118    0.059    0.059   -1.788  -15.152   18.045  -63.955    0.095   30.664
     0.120    0.060    0.060   -1.830  -15.247   18.248  -65.039    0.098   31.447
     0.122    0.061    0.061   -1.871  -15.336   18.450  -66.123    0.101   32.236
     0.124    0.062    0.062   -1.912  -15.420   18.651  -67.207    0.104   33.032
     0.126    0.063    0.063   -1.953  -15.499   18.851  -68.291    0.106   33.835
     0.128    0.064    0.064   -1.993  -15.573   19.050  -69.375    0.109   34.643
     0.130    0.065    0.065   -2.033  -15.641   19.248  -70.459    0.112   35.458
     0.132    0.066    0.066   -2.073  -15.703   19.445  -71.543    0.115   36.280
     0.134    0.067    0.067   -2.112  -15.761   19.641  -72.627    0.118   37.107
     0.136    0.068    0.068   -2.151  -15.813   19.836  -73.711    0.121   37.941
     0.138    0.069    0.069   -2.189  -15.860   20.030  -74.795    0.124   38.781
     0.140    0.070    0.070   -2.226  -15.902   20.223  -75.879    0.127   39.627
     0.142    0.071    0.071   -2.263  -15.939   20.415  -76.963    0.130   40.480
     0.144    0.072    0.072   -2.300  -15.970   20.606  -78.047    0.133   41.338
     0.146    0.073    0.073   -2.335  -15.996   20.797  -79.131    0.136   42.202
     0.148    0.074    0.074   -2.371  -16.018   20.986  -80.215    0.139   43.072
     0.150    0.075    0.075   -2.405  -16.034   21.175  -81.299    0.142   43.948
     0.152    0.076    0.076   -2.439  -16.045   21.363  -82.383    0.146   44.830
     0.154    0.077    0.077   -2.472  -16.051   21.550  -83.467    0.149   45.718
     0.156    0.078    0.078   -2.504  -16.052   21.736  -84.551    0.152   46.611
     0.158    0.079    0.079   -2.536  -16.048   21.921  -85.635    0.155   47.511
     0.160    0.080    0.080   -2.566  -16.039   22.106  -86.719    0.159   48.415
     0.162    0.081    0.081   -2.596  -16.026   22.290  -87.803    0.162   49.326
     0.164    0.082    0.082   -2.625  -16.007   22.473  -88.887    0.165   50.242
     0.166    0.083    0.083   -2.653  -15.983   22.655  -89.971    0.169   51.164
     0.168    0.084    0.084   -2.680  -15.955   22.837  -91.055    0.172   52.092
     0.170    0.085    0.085   -2.707  -15.922   23.018  -92.139    0.175   53.025
     0.172    0.086    0.086   -2.732  -15.884   23.198  -93.223    0.179   53.963
     0.174    0.087    0.087   -2.756  -15.841   23.377  -94.307    0.182   54.907
     0.176    0.088    0.088   -2.780  -15.793   23.556  -95.391    0.186   55.856
     0.178    0.089    0.089   -2.802  -15.740   23.734  -96.475    0.189   56.811
     0.180    0.090    0.090   -2.823  -15.683   23.912  -97.559    0.193   57.771
     0.182    0.091    0.091   -2.843  -15.621   24.088  -98.643    0.197   58.737
     0.184    0.092    0.092   -2.862  -15.555   24.265  -99.727    0.200   59.708
     0.186    0.093    0.093   -2.880  -15.483   24.440 -100.811    0.204   60.684
     0.188    0.094    0.094   -2.897  -15.407   24.615 -101.895    0.207   61.665
     0.190    0.095    0.095   -2.912  -15.327   24.789 -102.979    0.211   62.652
     0.192    0.096    0.096   -2.926  -15.242   24.963 -104.063    0.215   63.644
     0.194    0.097    0.097   -2.939  -15.152   25.136 -105.147    0.219   64.641
     0.196    0.098    0.098   -2.951  -15.057   25.308 -106.231    0.222   65.643
     0.198    0.099    0.099   -2.962  -14.958   25.480 -107.315    0.226   66.650
     0.200    0.100    0.100   -2.971  -14.855   25.652 -108.399    0.230   67.663
     0.202    0.101    0.101   -2.979  -14.747   25.822 -109.483    0.234   68.680
     0.204    0.102    0.102   -2.985  -14.634   25.992 -110.567    0.238   69.703
     0.206    0.103    0.103   -2.991  -14.517   26.162 -111.651    0.242   70.730
     0.208    0.104    0.104   -2.994  -14.396   26.331 -112.735    0.246   71.763
     0.210    0.105    0.105   -2.997  -14.270   26.500 -113.819    0.250   72.800
     0.212    0.106    0.106   -2.998  -14.139   26.668 -114.903    0.253   73.843
     0.214    0.107    0.107   -2.997  -14.004   26.835 -115.987    0.257   74.890
     0.216    0.108    0.108   -2.995  -13.865   27.002 -117.071    0.261   75.942
     0.218    0.109    0.109   -2.991  -13.721   27.168 -118.155    0.266   77.000
     0.220    0.110    0.110   -2.986  -13.573   27.334 -119.239    0.270   78.062
     0.222    0.111    0.111   -2.979  -13.421   27.500 -120.323    0.274   79.129
     0.224    0.112    0.112   -2.971  -13.264   27.665 -121.407    0.278   80.200
     0.226    0.113    0.113   -2.961  -13.103   27.829 -122.491    0.282   81.277
     0.228    0.114    0.114   -2.950  -12.938   27.993 -123.575    0.286   82.358
     0.230    0.115    0.115   -2.937  -12.768   28.157 -124.659    0.290   83.444
     0.232    0.116    0.116   -2.922  -12.594   28.320 -125.743    0.295   84.535
     0.234    0.117    0.117   -2.905  -12.416   28.482 -126.827    0.299   85.630
     0.236    0.118    0.118   -2.887  -12.233   28.644 -127.911    0.303   86.731
     0.238    0.119    0.119   -2.867  -12.047   28.806 -128.995    0.307   87.835
     0.240    0.120    0.120   -2.845  -11.856   28.967 -130.079    0.312   88.945
     0.242    0.121    0.121   -2.822  -11.660   29.128 -131.163    0.316   90.059
     0.244    0.122    0.122   -2.796  -11.461   29.288 -132.247    0.320   91.178
     0.246    0.123    0.123   -2.769  -11.257   29.448 -133.331    0.325   92.301
     0.248    0.124    0.124   -2.740  -11.050   29.607 -134.415    0.329   93.429
     0.250    0.125    0.125   -2.709  -10.838   29.766 -135.499    0.334   94.561
     0.252    0.126    0.126   -2.677  -10.622   29.925 -136.583    0.338   95.698
     0.254    0.127    0.127   -2.642  -10.402   30.083 -137.667    0.343   96.840
     0.256    0.128    0.128   -2.605  -10.177   30.240 -138.751    0.347   97.986
     0.258    0.129    0.129   -2.567   -9.949   30.398 -139.835    0.352   99.137
     0.260    0.130    0.130   -2.526   -9.717   30.555 -140.919    0.356  100.292
     0.262    0.131    0.131   -2.484   -9.480   30.711 -142.003    0.361  101.451
     0.264    0.132    0.132   -2.439   -9.240   30.867 -143.087    0.365  102.615
     0.266    0.133    0.133   -2.393   -8.995   31.023 -144.171    0.370  103.783
     0.268    0.134    0.134   -2.344   -8.746   31.178 -145.255    0.375  104.956
     0.270    0.135    0.135   -2.293   -8.494   31.333 -146.339    0.379  106.133
     0.272    0.136    0.136   -2.240   -8.237   31.488 -147.423    0.384  107.314
     0.274    0.137    0.137   -2.186   -7.976   31.642 -148.507    0.389  108.500
     0.276    0.138    0.138   -2.128   -7.712   31.796 -149.591    0.393  109.690
     0.278    0.139    0.139   -2.069   -7.443   31.949 -150.675    0.398  110.885
     0.280    0.140    0.140   -2.008   -7.170   32.102 -151.759    0.403  112.083
     0.282    0.141    0.141   -1.944   -6.894   32.255 -152.843    0.408  113.286
     0.284    0.142    0.142   -1.878   -6.613   32.407 -153.927    0.413  114.494
     0.286    0.143    0.143   -1.810   -6.329   32.559 -155.011    0.417  115.705
     0.288    0.144    0.144   -1.740   -6.041   32.711 -156.095    0.422  116.921
     0.290    0.145    0.145   -1.667   -5.748   32.862 -157.179    0.427  118.141
     0.292    0.146    0.146   -1.592   -5.452   33.013 -158.263    0.432  119.365
     0.294    0.147    0.147   -1.515   -5.152   33.163 -159.347    0.437  120.594
     0.296    0.148    0.148   -1.435   -4.849   33.314 -160.431    0.442  121.826
     0.298    0.149    0.149   -1.353   -4.541   33.464 -161.515    0.447  123.063
     0.300    0.150    0.150   -1.269   -4.229   33.613 -162.599    0.452  124.304
     0.302    0.151    0.151   -1.182   -3.914   33.762 -163.683    0.457  125.549
     0.304    0.152    0.152   -1.093   -3.595   33.911 -164.767    0.462  126.799
     0.306    0.153    0.153   -1.001   -3.272   34.060 -165.851    0.467  128.052
     0.308    0.154    0.154   -0.907   -2.945   34.208 -166.935    0.472  129.309
     0.310    0.155    0.155   -0.810   -2.614   34.356 -168.019    0.478  130.571
     0.312    0.156    0.156   -0.711   -2.280   34.504 -169.103    0.483  131.837
     0.314    0.157    0.157   -0.610   -1.942   34.651 -170.187    0.488  133.106
     0.316    0.158    0.158   -0.506   -1.600   34.798 -171.271    0.493  134.380
     0.318    0.159    0.159   -0.399   -1.254   34.944 -172.355    0.498  135.658
     0.320    0.160    0.160   -0.290   -0.905   35.091 -173.439    0.503  136.940
     0.322    0.161    0.161   -0.178   -0.552   35.237 -174.523    0.509  138.225
     0.324    0.162    0.162   -0.063   -0.195   35.383 -175.607    0.514  139.515
     0.326    0.163    0.163    0.054    0.166   35.528 -176.691    0.519  140.809
     0.328    0.164    0.164    0.174    0.530   35.673 -177.775    0.525  142.107
     0.330    0.165    0.165    0.296    0.898   35.818 -178.859    0.530  143.409
     0.332    0.166    0.166    0.422    1.270   35.963 -179.943    0.535  144.714
     0.334    0.167    0.167    0.549    1.645   36.107 -181.027    0.541  146.024
     0.336    0.168    0.168    0.680    2.024   36.251 -182.111    0.546  147.337
     0.338    0.169    0.169    0.813    2.407   36.395 -183.195    0.552  148.655
     0.340    0.170    0.170    0.950    2.793   36.538 -184.279    0.557  149.976
     0.342    0.171    0.171    1.088    3.183   36.681 -185.363    0.562  151.301
     0.344    0.172    0.172    1.230    3.576   36.824 -186.447    0.568  152.631
     0.346    0.173    0.173    1.375    3.973   36.967 -187.531    0.573  153.964
     0.348    0.174    0.174    1.522    4.374   37.109 -188.615    0.579  155.301
     0.350    0.175    0.175    1.672    4.778   37.251 -189.699    0.585  156.641
     0.352    0.176    0.176    1.826    5.186   37.393 -190.783    0.590  157.986
     0.354    0.177    0.177    1.982    5.598   37.534 -191.867    0.596  159.334
     0.356    0.178    0.178    2.141    6.013   37.676 -192.950    0.601  160.686
     0.358    0.179    0.179    2.302    6.431   37.817 -194.034    0.607  162.042
     0.360    0.180    0.180    2.467    6.854   37.957 -195.118    0.613  163.402
     0.362    0.181    0.181    2.635    7.279   38.098 -196.202    0.618  164.766
     0.364    0.182    0.182    2.806    7.709   38.238 -197.286    0.624  166.133
     0.366    0.183    0.183    2.980    8.141   38.378 -198.370    0.630  167.504
     0.368    0.184    0.184    3.157    8.578   38.518 -199.454    0.636  168.879
     0.370    0.185    0.185    3.336    9.018   38.657 -200.538    0.641  170.258
     0.372    0.186    0.186    3.519    9.461   38.796 -201.622    0.647  171.640
     0.374    0.187    0.187    3.705    9.908   38.935 -202.706    0.653  173.026
     0.376    0.188    0.188    3.895   10.358   39.074 -203.790    0.659  174.416
     0.378    0.189    0.189    4.087   10.812   39.212 -204.874    0.665  175.809
     0.380    0.190    0.190    4.282   11.269   39.350 -205.958    0.670  177.206
     0.382    0.191    0.191    4.481   11.730   39.488 -207.042    0.676  178.607
     0.384    0.192    0.192    4.682   12.194   39.626 -208.126    0.682  180.012
     0.386    0.193    0.193    4.887   12.661   39.764 -209.210    0.688  181.420
     0.388    0.194    0.194    5.095   13.132   39.901 -210.294    0.694  182.832
     0.390    0.195    0.195    5.307   13.607   40.038 -211.378    0.700  184.247
     0.392    0.196    0.196    5.521   14.085   40.175 -212.462    0.706  185.666
     0.394    0.197    0.197    5.739   14.566   40.311 -213.546    0.712  187.089
     0.396    0.198    0.198    5.960   15.051   40.447 -214.630    0.718  188.515
     0.398    0.199    0.199    6.184   15.539   40.583 -215.714    0.724  189.945
     0.400    0.200    0.200    6.412   16.030   40.719 -216.798    0.730  191.379
     0.402    0.201    0.201    6.643   16.525   40.855 -217.882    0.736  192.816
     0.404    0.202    0.202    6.877   17.023   40.990 -218.966    0.742  194.257
     0.406    0.203    0.203    7.115   17.525   41.126 -220.050    0.749  195.701
     0.408    0.204    0.204    7.356   18.030   41.260 -221.134    0.755  197.149
     0.410    0.205    0.205    7.601   18.538   41.395 -222.218    0.761  198.600
     0.412    0.206    0.206    7.849   19.050   41.530 -223.302    0.767  200.055
     0.414    0.207    0.207    8.100   19.565   41.664 -224.386    0.773  201.514
     0.416    0.208    0.208    8.355   20.083   41.798 -225.470    0.780  202.976
     0.418    0.209    0.209    8.613   20.605   41.932 -226.554    0.786  204.441
     0.420    0.210    0.210    8.874   21.130   42.066 -227.638    0.792  205.910
     0.422    0.211    0.211    9.140   21.658   42.199 -228.722    0.798  207.383
     0.424    0.212    0.212    9.408   22.190   42.332 -229.806    0.805  208.859
     0.426    0.213    0.213    9.681   22.724   42.465 -230.890    0.811  210.338
     0.428    0.214    0.214    9.956   23.263   42.598 -231.974    0.817  211.821
     0.430    0.215    0.215   10.236   23.804   42.731 -233.058    0.824  213.308
     0.432    0.216    0.216   10.519   24.349   42.863 -234.142    0.830  214.798
     0.434    0.217    0.217   10.805   24.897   42.995 -235.226    0.837  216.291
     0.436    0.218    0.218   11.095   25.448   43.127 -236.310    0.843  217.788
     0.438    0.219    0.219   11.389   26.003   43.259 -237.394    0.850  219.288
     0.440    0.220    0.220   11.687   26.560   43.391 -238.478    0.856  220.792
     0.442    0.221    0.221   11.988   27.121   43.522 -239.562    0.862  222.299
     0.444    0.222    0.222   12.292   27.686   43.653 -240.646    0.869  223.810
     0.446    0.223    0.223   12.601   28.253   43.784 -241.730    0.876  225.323
     0.448    0.224    0.224   12.913   28.824   43.915 -242.814    0.882  226.841
     0.450    0.225    0.225   13.229   29.398   44.046 -243.898    0.889  228.361
     0.452    0.226    0.226   13.549   29.975   44.176 -244.982    0.895  229.886
     0.454    0.227    0.227   13.872   30.555   44.306 -246.066    0.902  231.413
     0.456    0.228    0.228   14.199   31.139   44.436 -247.150    0.908  232.944
     0.458    0.229    0.229   14.530   31.725   44.566 -248.234    0.915  234.478
     0.460    0.230    0.230   14.865   32.315   44.696 -249.318    0.922  236.016
     0.462    0.231    0.231   15.204   32.908   44.825 -250.402    0.928  237.557
     0.464    0.232    0.232   15.546   33.504   44.954 -251.486    0.935  239.101
     0.466    0.233    0.233   15.892   34.104   45.084 -252.570    0.942  240.648
     0.468    0.234    0.234   16.243   34.706   45.212 -253.654    0.949  242.199
     0.470    0.235    0.235   16.597   35.312   45.341 -254.738    0.955  243.754
